Hydroquinone in Methanol,,
Wavelength (nm),Intensity (a.u.),
290,0.8835268021,
292,-0.09729957581,
294,-0.7596487999,
296,-0.805087328,
298,-1.075427651,
300,-0.9099949598,
302,-0.9415780306,
304,-1.038627148,
306,-1.069237947,
308,-0.8210251927,
310,-0.6247310042,
312,-0.3689735532,
314,0.08250260353,
316,1.893710375,
318,9.340837479,
320,23.95410538,
322,53.92628098,
324,92.36927795,
326,124.5057755,
328,153.5523529,
330,164.2970581,
332,163.8183441,
334,163.1786041,
336,157.7812805,
338,150.6212158,
340,144.6587524,
342,131.7563629,
344,125.1954803,
346,113.9953079,
348,103.6616974,
350,101.2387619,
352,96.07244873,
354,84.1559906,
356,81.64202881,
358,73.48941803,
360,62.50614548,
361.9599915,58.56495285,
363.9299927,51.16254044,
366.0599976,50.09836578,
368.0299988,40.39451981,
370,37.71376801,
372,36.6019783,
374,31.16812515,
376,29.00133896,
378,24.5396595,
380,22.06126785,
381.9599915,21.60906792,
383.9299927,18.59668922,
386.0599976,15.46951008,
388.0299988,13.7828083,
390,13.4314785,
392,10.8359127,
394,10.47114944,
396,8.617312431,
398,8.229139328,
400,6.828221321,
401.9599915,6.180624008,
403.9299927,5.250325203,
406.0599976,4.962341309,
408.0299988,3.955344439,
410,3.830786467,
411.9599915,2.708739519,
413.9299927,2.938078642,
416.0599976,2.081497431,
418.0299988,1.686262131,
420,1.417766809,
421.9599915,0.8794703484,
423.9299927,1.705142736,
426.0599976,1.368950605,
428.0299988,0.7626979351,
430,0.2186719179,
431.9599915,0.56473279,
433.9299927,0.4906009436,
436.0599976,-0.08484470844,
438.0299988,0.01791965961,
440,-0.2475832105,
441.9599915,-0.4314417243,
443.9299927,-0.00381052494,
446.0599976,-0.1340095997,
448.0299988,-0.2062630057,
450,-0.4674566984,
451.9400024,-0.6118540764,
454.019989,-0.6345623732,
455.9700012,-0.3709341288,
458.0499878,-0.662861526,
460,-0.6061908603,
461.9599915,-0.3789067864,
463.9299927,-0.5173428059,
466.0599976,-0.5352627635,
468.0299988,-0.8023326993,
470,-0.6622388959,
471.9400024,-0.7510603666,
474.019989,-0.7234773636,
475.9700012,-0.7775752544,
478.0499878,-0.8442816734,
480,-0.5256894827,
481.9599915,-0.6139553189,
483.9299927,-0.8391728401,
486.0599976,-0.8075534105,
488.0299988,-0.5508275032,
490,-0.8253284693,
491.9400024,-0.5769273639,
494.019989,-0.7566488981,
495.9700012,-0.8689702153,
498.0499878,-0.8473946452,
500,-0.8082717657,
501.9400024,-1.080670953,
504.019989,-0.7671707869,
505.9700012,-0.9881089926,
508.0499878,-0.970276475,
510,-0.9622684717,
512.0499878,-0.8798565269,
513.9699707,-1.01819396,
516.0200195,-1.058329344,
517.9400024,-1.018251777,
520,-0.8333857059,
521.9400024,-0.9175390005,
524.0200195,-0.9106696844,
525.9699707,-0.847501874,
528.0499878,-1.024926305,
530,-1.196165681,
531.9400024,-1.037271857,
534.0200195,-1.123058319,
535.9699707,-1.079815388,
538.0499878,-0.8719493151,
540,-0.7641561031,
542.0499878,-1.009088993,
543.9699707,-1.01494658,
546.0200195,-1.17530179,
547.9400024,-0.9891217947,
550,-1.089565992,
552.0499878,-1.091868877,
553.9699707,-0.9918701649,
556.0200195,-1.112324119,
557.9400024,-1.05758822,
560,-1.071553826,
562.0499878,-1.072256446,
563.9699707,-1.079178333,
566.0200195,-0.826644659,
567.9400024,-0.7752921581,
570,-0.4103388786,
572.0499878,0.602773428,
573.9699707,0.2930442095,
576.0200195,0.410918355,
577.9400024,0.2638208866,
580,0.1145590544,
582.0200195,-0.3105348945,
584.0499878,-0.7425692081,
585.9400024,-1.040376425,
587.9699707,-1.063953519,
590,-1.037366152,
592.0499878,-1.185589552,
593.9699707,-0.9590190053,
596.0200195,-1.081754923,
597.9400024,-1.154266119,
600,-0.9909832478,
602.0200195,-1.092303038,
604.0499878,-0.925362587,
605.9400024,-1.030715704,
607.9699707,-1.154458523,
610,-1.038584828,
612.0200195,-0.8296729326,
614.0499878,-1.04833281,
615.9400024,-0.9951657653,
617.9699707,-0.9768713713,
620,-1.070627809,
622.0200195,-1.004130363,
624.0499878,-1.005948186,
625.9400024,-0.8642394543,
627.9699707,-0.8422400951,
630,-1.066456795,
632.0200195,-0.8253039122,
634.0499878,-0.5417017341,
635.9400024,-0.2077257633,
637.9699707,0.4457828999,
640,1.644608974,
642,3.278230906,
644,6.832507133,
646,8.965456963,
648,13.35377979,
650,15.47723484,
652.0200195,18.74908447,
654.0499878,21.20700073,
655.9400024,20.46974564,
657.9699707,22.31018066,
660,21.86519623,
662,22.80277061,
664,21.72537613,
666,20.86154175,
668,20.3471489,
670,20.39080429,
672,19.97456551,
674,19.12501907,
676,19.98630524,
678,16.27190018,
680,14.58912182,
681.9699707,15.41165829,
683.9400024,15.22347355,
686.0499878,14.10545158,
688.0200195,12.18633461,
690,11.65617943,
692,11.64117336,
694,10.50958252,
696,10.10896301,
698,8.935230255,
700,8.13926506,

Hydroquinone in Methanol,
Hydroquinone in Methanol
Collection Time: 4/28/2025 1:37:00 PM
Operator Name  :
Scan Software Version: 1.2(147)
Parameter List :
Instrument                        Cary Eclipse
Instrument Serial Number          MY17430002
Data mode                         Fluorescence
Scan mode                         Emission
X Mode                            Wavelength (nm)
Start (nm)                        290.00
Stop (nm)                         700.00
Ex. Wavelength (nm)               288.00
Ex. Slit (nm)                     5
Em. Slit (nm)                     5
Scan rate (nm/min)                1200.00
Data interval (nm)                2.0000
Averaging Time (s)                0.1000
Excitation filter                 Auto
Emission filter                   Open
PMT voltage (V)                   High
Corrected spectra                 OFF
Method Log     :
Method Name    : Default
Date/Time stamp: 4/28/2025 9:34:43 AM
Method Modifications:
Zero Mode Changed: 4/28/2025 9:36:12 AM, Old:OFF, New:Reading
Zero Mode Changed: 4/28/2025 9:36:12 AM, Old:Reading, New:ON
PMT Volts Changed: 4/28/2025 9:36:35 AM, Old:600, New:800
Ex. Slit Width (nm): Changed: 4/28/2025 9:36:35 AM, Old:5, New:10
Em. Slit Width (nm): Changed: 4/28/2025 9:36:35 AM, Old:5, New:10
Emission PMT (V): Changed: 4/28/2025 9:36:35 AM, Old: 600, New: 800
Excitation Wavelength Changed: 4/28/2025 9:36:35 AM, Old: 350.00, New: 288.00
Emission Wavelength Changed: 4/28/2025 9:36:35 AM, Old: 400.00, New: 300.00
Stop Wavelength Changed: 4/28/2025 9:36:35 AM, Old: 600.00, New: 700.00
Zero Mode Changed: 4/28/2025 9:36:36 AM, Old:ON, New:OFF
User Delta Increment Changed: 4/28/2025 9:40:22 AM, Old:  10.00, New:   0.15
Excitation Wavelength Changed: 4/28/2025 9:40:22 AM, Old: 288.00, New: 450.00
Emission Wavelength Changed: 4/28/2025 9:40:22 AM, Old: 300.00, New: 500.00
Stop Wavelength Changed: 4/28/2025 9:40:22 AM, Old: 700.00, New: 800.00
Ex. Slit Width (nm): Changed: 4/28/2025 9:40:50 AM, Old:10, New:5
Em. Slit Width (nm): Changed: 4/28/2025 9:40:50 AM, Old:10, New:5
Excitation Wavelength Changed: 4/28/2025 9:50:42 AM, Old: 450.00, New: 288.00
Emission Wavelength Changed: 4/28/2025 9:50:42 AM, Old: 500.00, New: 300.00
Stop Wavelength Changed: 4/28/2025 9:50:52 AM, Old: 800.00, New: 700.00
Ex. Slit Width (nm): Changed: 4/28/2025 10:00:54 AM, Old:5, New:2.5
Em. Slit Width (nm): Changed: 4/28/2025 10:00:54 AM, Old:5, New:2.5
PMT Volts Changed: 4/28/2025 10:01:27 AM, Old:800, New:600
Ex. Slit Width (nm): Changed: 4/28/2025 10:01:27 AM, Old:2.5, New:5
Em. Slit Width (nm): Changed: 4/28/2025 10:01:27 AM, Old:2.5, New:5
Emission PMT (V): Changed: 4/28/2025 10:01:27 AM, Old: 800, New: 600
PMT Volts Changed: 4/28/2025 10:29:17 AM, Old:600, New:800
Emission PMT (V): Changed: 4/28/2025 10:29:17 AM, Old: 600, New: 800
PMT Volts Changed: 4/28/2025 10:36:23 AM, Old:800, New:600
Emission PMT (V): Changed: 4/28/2025 10:36:23 AM, Old: 800, New: 600
Excitation Wavelength Changed: 4/28/2025 10:36:42 AM, Old: 288.00, New: 450.00
Emission Wavelength Changed: 4/28/2025 10:36:42 AM, Old: 300.00, New: 500.00
User Delta Stop Changed: 4/28/2025 10:37:33 AM, Old: 450.00, New: 532.00
Excitation Wavelength Changed: 4/28/2025 10:37:33 AM, Old: 450.00, New: 532.00
Emission Wavelength Changed: 4/28/2025 10:37:33 AM, Old: 500.00, New: 550.00
Zero Mode Changed: 4/28/2025 10:40:03 AM, Old:OFF, New:Reading
Zero Mode Changed: 4/28/2025 10:40:03 AM, Old:Reading, New:ON
PMT Volts Changed: 4/28/2025 10:40:13 AM, Old:600, New:800
Emission PMT (V): Changed: 4/28/2025 10:40:13 AM, Old: 600, New: 800
Excitation Wavelength Changed: 4/28/2025 10:40:13 AM, Old: 532.00, New: 288.00
Zero Mode Changed: 4/28/2025 10:40:13 AM, Old:ON, New:OFF
Excitation Wavelength Changed: 4/28/2025 10:42:47 AM, Old: 288.00, New: 450.00
Emission Wavelength Changed: 4/28/2025 10:42:47 AM, Old: 550.00, New: 500.00
Zero Mode Changed: 4/28/2025 10:48:18 AM, Old:OFF, New:Reading
Zero Mode Changed: 4/28/2025 10:48:19 AM, Old:Reading, New:ON
Excitation Wavelength Changed: 4/28/2025 10:50:10 AM, Old: 450.00, New: 288.00
Emission Wavelength Changed: 4/28/2025 10:50:21 AM, Old: 500.00, New: 300.00
Emission Wavelength Changed: 4/28/2025 10:50:47 AM, Old: 300.00, New: 290.00
Zero Mode Changed: 4/28/2025 12:12:01 PM, Old:ON, New:Reading
Zero Mode Changed: 4/28/2025 12:12:01 PM, Old:Reading, New:ON
Zero Mode Changed: 4/28/2025 12:15:16 PM, Old:ON, New:Reading
Zero Mode Changed: 4/28/2025 12:15:16 PM, Old:Reading, New:ON
Zero Mode Changed: 4/28/2025 12:16:01 PM, Old:ON, New:Reading
Zero Mode Changed: 4/28/2025 12:16:01 PM, Old:Reading, New:ON
Zero Mode Changed: 4/28/2025 12:33:43 PM, Old:ON, New:Reading
Zero Mode Changed: 4/28/2025 12:33:43 PM, Old:Reading, New:ON
Zero Mode Changed: 4/28/2025 12:37:23 PM, Old:ON, New:Reading
Zero Mode Changed: 4/28/2025 12:37:23 PM, Old:Reading, New:ON
PMT Volts Changed: 4/28/2025 12:45:50 PM, Old:800, New:600
Emission PMT (V): Changed: 4/28/2025 12:45:50 PM, Old: 800, New: 600
Zero Mode Changed: 4/28/2025 12:45:50 PM, Old:ON, New:OFF
Zero Mode Changed: 4/28/2025 12:55:31 PM, Old:OFF, New:Reading
Zero Mode Changed: 4/28/2025 12:55:31 PM, Old:Reading, New:ON
PMT Volts Changed: 4/28/2025 1:10:00 PM, Old:600, New:800
Emission PMT (V): Changed: 4/28/2025 1:10:00 PM, Old: 600, New: 800
Zero Mode Changed: 4/28/2025 1:10:00 PM, Old:ON, New:OFF
Zero Mode Changed: 4/28/2025 1:13:17 PM, Old:OFF, New:Reading
Zero Mode Changed: 4/28/2025 1:13:17 PM, Old:Reading, New:ON
Zero Mode Changed: 4/28/2025 1:20:23 PM, Old:ON, New:Reading
Zero Mode Changed: 4/28/2025 1:20:23 PM, Old:Reading, New:ON
Zero Mode Changed: 4/28/2025 1:28:39 PM, Old:ON, New:Reading
Zero Mode Changed: 4/28/2025 1:28:39 PM, Old:Reading, New:ON
Scan Control Changed: 4/28/2025 1:36:24 PM, Old:Medium, New:Fast
Data interval: Changed: 4/28/2025 1:36:24 PM, Old:   1.00, New:   2.00
End Method Modifications

