S5,,
Wavelength (nm),Abs,
800.0029907,-0.0007328860811,
798.9966431,-0.00128235959,
797.9899292,-0.0003372149949,
796.9829102,-0.001512778574,
796.0100708,-0.001024289639,
795.0021362,-0.0002173877147,
793.9938965,0.00049353746,
792.9851685,-0.0003425433242,
792.0108643,-0.0002180604206,
791.0012817,-0.000656075892,
789.991394,-0.001857430558,
789.0159302,-0.001699243323,
788.0053101,-0.001200535218,
786.9941406,-0.002069356386,
785.982605,-0.000942055136,
785.0056763,0.0004035166639,
783.9933472,-0.0003425950417,
783.015686,-0.0004054438032,
782.0025635,-0.0008950422052,
780.9891357,-0.0009687107522,
780.0102539,-0.001090861391,
778.9960327,-0.001032192027,
778.0163574,-0.001169195282,
777.0014038,-0.001237861463,
775.9860229,0.0007345398189,
775.005188,-0.0005527277244,
773.9890137,0.0001236489916,
773.0075684,-0.0001886159735,
771.9906006,-0.0003258338547,
771.0083618,-0.0004690075002,
769.9906616,-0.0003807192261,
769.0076904,-0.0004544750263,
767.9891357,-0.0006069639931,
767.0054932,-0.0006060851156,
765.9862061,3.19444589E-005,
765.00177,-0.0005455922219,
764.0169067,-0.0001256840769,
762.996521,2.451470391E-005,
762.0109863,-1.817156954E-005,
760.9898682,-0.0002489516337,
760.00354,-0.0005219097948,
759.0169067,-0.0005984851741,
757.9946289,-0.0009097149014,
757.0072021,-0.0001125376075,
755.9841919,-7.910031854E-005,
754.9960938,-0.000164189536,
754.0076294,-0.0001819919853,
752.9834595,-0.0002402071113,
751.9942627,0.0003987233504,
751.0046997,-4.985351188E-005,
750.0148315,-0.0001439538901,
748.9892578,0.0008032851038,
747.9985962,0.0001867297397,
747.0076294,0.0007142890827,
746.0162354,-0.0003743568086,
744.9891968,0.0005297168391,
743.9970703,8.328314289E-005,
743.0046387,-0.0001310667576,
742.0119629,-0.0001370186947,
740.9833374,-0.0001271332731,
739.9898682,-0.0005379395443,
738.9960938,-0.0001476284669,
738.0019531,-1.071665884E-005,
737.0073853,0.0001789606758,
736.0125732,-3.960372487E-005,
735.017395,-0.0001211811978,
733.9862671,2.832017344E-005,
732.9902954,0.000139962096,
731.9940186,-0.0003049849183,
730.9974365,9.07915819E-005,
730.0004883,0.0007239605766,
729.0031738,0.0006153828581,
728.0055542,0.0001718391577,
727.0075684,0.0006445468171,
726.0092163,0.0003540572361,
725.0105591,0.0009167088429,
724.0115356,0.0004360090825,
723.012207,0.0008678912418,
722.0124512,0.0008103391738,
721.0124512,0.001144501613,
720.0120239,0.001546174055,
719.0113525,0.001699187211,
718.0103149,0.001773127704,
717.0089111,0.002353940392,
716.0071411,0.002532363869,
715.0050659,0.003404057119,
714.0026245,0.00337191578,
712.9998169,0.003746253438,
711.9968262,0.003480845829,
710.9933472,0.003974177409,
709.989563,0.0036566786,
708.9854736,0.004462028388,
708.0169678,0.004736463074,
707.012146,0.005111743696,
706.0070801,0.005762956571,
705.0015869,0.006036272738,
703.9959106,0.006308631506,
702.9898071,0.006748788524,
701.9833984,0.007229555864,
701.0125732,0.007759368047,
700.0054932,0.008880193345,
698.9980469,0.009196775965,
697.9903564,0.009804633446,
696.9822998,0.009608827531,
696.0099487,0.009687594138,
695.0011597,0.01019399334,
693.9921265,0.0114195263,
692.9827881,0.01202978659,
692.0091553,0.01182206813,
690.9991455,0.01310388464,
689.9888306,0.01377583295,
689.0142822,0.01330898702,
688.0032349,0.01409822516,
686.9919434,0.01408998948,
686.0164795,0.0142185986,
685.0045776,0.01476135012,
683.9922485,0.01401640847,
683.0158081,0.01426583715,
682.0029297,0.01459164545,
680.9897461,0.01383141428,
680.0123901,0.01397200394,
678.9984741,0.01370003354,
677.984314,0.01376439631,
677.0061035,0.01337513421,
675.991272,0.01313787512,
675.0123901,0.01288543921,
673.9970093,0.0120194871,
673.0175171,0.01223424915,
672.0014648,0.01220158115,
670.9850464,0.01205616072,
670.0046997,0.01125981007,
668.9876709,0.01177748851,
668.0067139,0.01083135419,
666.9891968,0.00989842508,
666.0075073,0.009942892008,
664.9893188,0.009301358834,
664.0072021,0.009089707397,
662.9882813,0.008299299516,
662.0054932,0.008341096342,
660.9860229,0.008038531989,
660.0027466,0.008062687702,
658.982605,0.007758287713,
657.9986572,0.007105840836,
657.0144653,0.006714979187,
655.9934692,0.006282367278,
655.008606,0.006159210578,
653.9870605,0.005812511314,
653.0016479,0.005516185891,
652.0159302,0.005544580054,
650.9934082,0.005628801882,
650.0071411,0.005612727255,
648.9840088,0.005199994892,
647.9971924,0.005138067529,
647.0100098,0.005023641046,
645.9859619,0.005078454036,
644.998291,0.005032256711,
644.0102539,0.005377049092,
642.9853516,0.00461879326,
641.9967651,0.004411895294,
641.0079346,0.004557655193,
639.9821167,0.004457216244,
638.9927368,0.004674497526,
638.0029297,0.005080313887,
637.0130005,0.004354133271,
635.9860229,0.004178671166,
634.9954224,0.004602101631,
634.0045776,0.004508949816,
633.0134888,0.004059846047,
631.9852905,0.004225091543,
630.9936523,0.004223915283,
630.0016479,0.004152666312,
629.0093994,0.003692130325,
628.0169067,0.003811873496,
626.9873047,0.003719830653,
625.9942017,0.004133902024,
625.0008545,0.003789076349,
624.0072632,0.003942855634,
623.0132446,0.00397394225,
621.9822998,0.003829631489,
620.987854,0.004278340377,
619.993103,0.004171640612,
618.9980469,0.004157972056,
618.0028076,0.003526461078,
617.0072021,0.00404330669,
616.0114136,0.003997976892,
615.0152588,0.003801062237,
613.9819946,0.003835115815,
612.9853516,0.004085662309,
611.9884644,0.003678424517,
610.991333,0.003439514432,
609.9937744,0.00328573049,
608.9960938,0.003539927304,
607.9981079,0.003269116394,
606.9998169,0.003583486658,
606.0012817,0.003595884657,
605.0025024,0.003950431477,
604.003479,0.004244748969,
603.0040894,0.004619735293,
602.0045776,0.004673686344,
601.0046997,0.005060094874,
600.0045776,0.005707060453,
599.0041504,0.005685527343,
598.003479,0.005905680824,
597.0026245,0.006591805257,
596.0014038,0.007978809066,
595,0.008509774692,
593.9983521,0.00974927377,
592.9963989,0.01136528887,
591.9941406,0.01322048716,
590.9916992,0.01515880041,
589.9889526,0.01746271737,
588.9859009,0.02064652182,
587.982666,0.02466561273,
587.0163574,0.02847186849,
586.0125732,0.03310173377,
585.0085449,0.03858248889,
584.0042725,0.04566866532,
582.9997559,0.05439019576,
581.9949951,0.06596698612,
580.9898682,0.07885053009,
579.9846191,0.09284541011,
579.0162964,0.109752886,
578.010498,0.1301636249,
577.0044556,0.155805409,
575.9981689,0.1859954,
574.9915771,0.2205357552,
573.9848022,0.2583023608,
573.0150146,0.2995022535,
572.0076904,0.3452242315,
571.0001221,0.4022938609,
569.9923096,0.4684740603,
568.984314,0.5278749466,
568.0133057,0.5927532315,
567.0046997,0.6549272537,
565.9959717,0.7133765817,
564.9869385,0.7749402523,
564.0150146,0.8343166113,
563.0053711,0.8841817379,
561.9956665,0.9251537919,
560.9855957,0.955878675,
560.0128174,0.9825419784,
559.0022583,1.000950933,
557.9914551,1.012108207,
557.0178833,1.016389728,
556.0067139,1.015309453,
554.9951782,1.009780526,
553.9834595,0.9966097474,
553.0090332,0.9809395075,
551.9967651,0.9615446329,
550.984314,0.9375059009,
550.0091553,0.9137421846,
548.9962769,0.8849083185,
547.9830322,0.8536036015,
547.0071411,0.8256973624,
545.9935303,0.7946984172,
545.0172119,0.7626925707,
544.0031128,0.7334046364,
542.9887085,0.7035936117,
542.0117798,0.6775991321,
540.9969482,0.6521573663,
539.9818726,0.6245664954,
539.0042114,0.5981933475,
537.9887085,0.5746449232,
537.0105591,0.5565173626,
535.9945679,0.5379247665,
535.0159302,0.5217283964,
533.9995117,0.5039156079,
532.9828491,0.4919794798,
532.0036011,0.4808658063,
530.9863892,0.4713618159,
530.0067139,0.4640200436,
528.9891968,0.4572406709,
528.0089722,0.4527498484,
526.9909668,0.4475793839,
526.010437,0.4429808557,
524.9918823,0.4393983483,
524.0109253,0.4344626069,
522.9919434,0.4288702309,
522.010498,0.4231635332,
520.9910889,0.4156033993,
520.0092163,0.4073448777,
518.9893188,0.3985441923,
518.007019,0.3900504708,
516.9867554,0.3795642257,
516.0039063,0.3661623597,
514.9832153,0.3545916378,
514.000061,0.3407519162,
513.0166626,0.3281169236,
511.9952393,0.3145580888,
511.0114441,0.3016391695,
509.989624,0.2871357501,
509.0054321,0.273566097,
507.9830627,0.2615998983,
506.9984436,0.2492665797,
506.0135498,0.2371407151,
504.9906311,0.2236002982,
504.0054016,0.2119302005,
502.9819946,0.2008100301,
501.9963379,0.1910044551,
501.010376,0.1813837141,
499.9863281,0.1707255989,
499.000061,0.1620627195,
498.0135193,0.1539640278,
496.9888306,0.147444278,
496.0019226,0.1412517428,
495.0147705,0.1357078403,
493.989502,0.1294685751,
493.0019226,0.124305509,
492.0141907,0.1203467324,
490.9882507,0.1173122302,
490.0000916,0.1133817211,
489.0117188,0.1098727137,
487.9851379,0.1064204723,
486.9963989,0.1036210135,
486.0074463,0.1001682654,
485.0183105,0.09661597759,
483.9909058,0.09333441406,
483.0013428,0.09091640264,
482.0115662,0.08671413362,
480.9836121,0.08258720487,
479.9934387,0.07888684422,
479.0029907,0.07519094646,
478.0124817,0.07140111178,
476.9836426,0.06743107736,
475.9927368,0.06353104115,
475.0015869,0.05982147902,
474.0102844,0.05657329038,
473.0187073,0.05281929299,
471.9888916,0.04967579618,
470.9969482,0.04656350613,
470.0048523,0.04413406551,
469.0125732,0.04149040952,
467.981842,0.03908562288,
466.9892273,0.03677225485,
465.9963379,0.03471504897,
465.0032959,0.03303293511,
464.0099182,0.03137909621,
463.0165405,0.03001475707,
461.9846802,0.02858714201,
460.9908447,0.02715453319,
459.9968262,0.02586508542,
459.002655,0.02494015358,
458.0082397,0.02386360057,
457.0136108,0.02285076678,
456.0188599,0.02162018232,
454.9856567,0.02070339583,
453.990509,0.0196960289,
452.9951782,0.01872555912,
451.9996338,0.01807149686,
451.0039673,0.0170911029,
450.0080872,0.01613932475,
449.0120239,0.01519582048,
448.0157776,0.01417000126,
446.9810181,0.01334080473,
445.984375,0.01256535761,
444.9875488,0.01164768543,
443.9905701,0.01091108657,
442.9934387,0.01031530462,
441.9960632,0.009661469609,
440.9985046,0.00912018586,
440.000824,0.008681158535,
439.0029297,0.008123107255,
438.0048218,0.007710855454,
437.0066223,0.007176654879,
436.0082092,0.006685431115,
435.009613,0.00635315245,
434.0108032,0.006117991172,
433.0118713,0.005574339069,
432.0127563,0.005518886261,
431.0134583,0.00511847483,
430.0139465,0.004876049235,
429.0142822,0.004926471505,
428.0144653,0.004586326424,
427.0144348,0.004289686214,
426.0142517,0.00416413974,
425.013916,0.004124154337,
424.0133972,0.00399745442,
423.0126953,0.00373050943,
422.0118408,0.00353447278,
421.0107727,0.003273654496,
420.0095215,0.003157162573,
419.0081482,0.003161986358,
418.0065918,0.002979133977,
417.0048828,0.002719039563,
416.0029602,0.002898759674,
415.000885,0.002630014904,
413.9986877,0.002482088516,
412.9962769,0.00258181151,
411.9936829,0.002474955283,
410.9909363,0.002485108562,
409.9880371,0.002448713873,
408.9848938,0.002551892307,
407.9816589,0.002458371921,
407.0168457,0.002555277199,
406.0133057,0.002284871181,
405.0095825,0.002329762327,
404.0056152,0.002291532932,
403.0015564,0.002191954758,
401.997345,0.002187037608,
400.9929199,0.00213381066,
399.9884033,0.002482244745,

s13,
s13
Collection Time: 2/16/2024 8:57:16 AM
Operator Name  :
Scan Version 5.1.0.1016
Parameter List :
Instrument  Cary 60
Instrument Version  2.00
Start (nm)  800.0
Stop (nm)  400.0
X Mode  Nanometers
Y Mode  Abs
UV-Vis Scan Rate (nm/min)  4800.00
UV-Vis Data Interval (nm)  1.00
UV-Vis Ave. Time (sec)  0.0125
Beam Mode  Dual Beam
Baseline Correction  On
Baseline Type  Zero/baseline correction
Baseline File Name
Baseline Std Ref File Name
Cycle Mode  Off
Method Log     :
Method Name    :
Date/Time stamp: 2/16/2024 8:00:54 AM
Method Modifications:
X Stop nm Changed: 2/16/2024 8:11:49 AM, Old:  200.0, New:  400.0
Baseline Correction Changed: 2/16/2024 8:24:33 AM, Old:0, New:2
Y Max Abs Changed: 2/16/2024 8:28:20 AM, Old:     1.00, New:     1.50
Peak Selection Changed: 2/16/2024 8:40:53 AM, Old:All Peaks, New:Maximum
Peak Position Changed: 2/16/2024 8:41:33 AM, Old:Top, New:Right
Common Interval nm Changed: 2/16/2024 8:44:51 AM, Old:     5.00, New:     2.00
Common Interval nm Changed: 2/16/2024 8:46:14 AM, Old:     2.00, New:     1.00
UVVIS SAT Changed: 2/16/2024 8:52:38 AM, Old:0.0125, New:0.1000
Common SAT Changed: 2/16/2024 8:52:38 AM, Old:0.0125, New:0.1000
UVVIS SAT Changed: 2/16/2024 8:52:49 AM, Old:0.1000, New:0.0125
Common SAT Changed: 2/16/2024 8:52:49 AM, Old:0.1000, New:0.0125
End Method Modifications
<Current Wavelength> , 400.0

