s23,,
Wavelength (nm),Abs,
800.0029907,0.00478650257,
798.9966431,0.006643636152,
797.9899292,0.006138311699,
796.9829102,0.005947877653,
796.0100708,0.007796052378,
795.0021362,0.005508399568,
793.9938965,0.006439974997,
792.9851685,0.006729359739,
792.0108643,0.006779340561,
791.0012817,0.007260325365,
789.991394,0.006257418077,
789.0159302,0.007157706656,
788.0053101,0.00676487945,
786.9941406,0.006122900639,
785.982605,0.007507167757,
785.0056763,0.007490786258,
783.9933472,0.007351305336,
783.015686,0.007629311178,
782.0025635,0.006611937191,
780.9891357,0.006323891692,
780.0102539,0.007188681979,
778.9960327,0.007305997424,
778.0163574,0.00684063416,
777.0014038,0.00744562177,
775.9860229,0.007600885816,
775.005188,0.007771279663,
773.9890137,0.006862592883,
773.0075684,0.007283173967,
771.9906006,0.006621898618,
771.0083618,0.007301469333,
769.9906616,0.007423449308,
769.0076904,0.007803458255,
767.9891357,0.007922205143,
767.0054932,0.007833372802,
765.9862061,0.007506825496,
765.00177,0.007779001258,
764.0169067,0.00758808339,
762.996521,0.007864949293,
762.0109863,0.007776787505,
760.9898682,0.007491786964,
760.00354,0.007671359461,
759.0169067,0.006957960781,
757.9946289,0.007668909151,
757.0072021,0.007351752836,
755.9841919,0.007985585369,
754.9960938,0.007524603512,
754.0076294,0.007961065508,
752.9834595,0.008143258281,
751.9942627,0.00716502266,
751.0046997,0.007123049814,
750.0148315,0.008004622534,
748.9892578,0.008665921167,
747.9985962,0.008542799391,
747.0076294,0.0085657686,
746.0162354,0.008105358109,
744.9891968,0.008180792443,
743.9970703,0.00895375479,
743.0046387,0.008018781431,
742.0119629,0.007694861852,
740.9833374,0.007191419136,
739.9898682,0.007358387578,
738.9960938,0.007611291483,
738.0019531,0.00815602392,
737.0073853,0.008048974909,
736.0125732,0.007832713425,
735.017395,0.008129384369,
733.9862671,0.008076321334,
732.9902954,0.008327058516,
731.9940186,0.008143838495,
730.9974365,0.008252705447,
730.0004883,0.008725606836,
729.0031738,0.008911555633,
728.0055542,0.008828147314,
727.0075684,0.008890048601,
726.0092163,0.009142260067,
725.0105591,0.009209863842,
724.0115356,0.009662369266,
723.012207,0.009072870016,
722.0124512,0.009907085449,
721.0124512,0.01004497893,
720.0120239,0.01088512689,
719.0113525,0.01115321368,
718.0103149,0.01135447435,
717.0089111,0.01202965342,
716.0071411,0.01233261544,
715.0050659,0.01336373482,
714.0026245,0.01377473678,
712.9998169,0.01394569967,
711.9968262,0.01482187957,
710.9933472,0.01603069156,
709.989563,0.01724298485,
708.9854736,0.0179569032,
708.0169678,0.01882229745,
707.012146,0.01994077489,
706.0070801,0.02066223882,
705.0015869,0.02265777253,
703.9959106,0.02384987101,
702.9898071,0.02517289482,
701.9833984,0.02616878413,
701.0125732,0.02801334485,
700.0054932,0.02981608547,
698.9980469,0.03152793273,
697.9903564,0.03319932893,
696.9822998,0.03530502319,
696.0099487,0.0377779603,
695.0011597,0.04066314176,
693.9921265,0.04377081618,
692.9827881,0.04693267494,
692.0091553,0.05165664479,
690.9991455,0.05679774657,
689.9888306,0.06227136776,
689.0142822,0.06994826347,
688.0032349,0.07649343461,
686.9919434,0.08493372053,
686.0164795,0.09561824799,
685.0045776,0.1063241065,
683.9922485,0.1199919432,
683.0158081,0.134381488,
682.0029297,0.1525792331,
680.9897461,0.1704868823,
680.0123901,0.1904823184,
678.9984741,0.2132151723,
677.984314,0.2396241426,
677.0061035,0.2682294548,
675.991272,0.3005922735,
675.0123901,0.3361460268,
673.9970093,0.3741357028,
673.0175171,0.4086681008,
672.0014648,0.4499579966,
670.9850464,0.4952899814,
670.0046997,0.5395866632,
668.9876709,0.5858294368,
668.0067139,0.6367702484,
666.9891968,0.6851498485,
666.0075073,0.7296706438,
664.9893188,0.7769125104,
664.0072021,0.8301118016,
662.9882813,0.8782584071,
662.0054932,0.9268838167,
660.9860229,0.9709723592,
660.0027466,1.010846734,
658.982605,1.048585773,
657.9986572,1.081469059,
657.0144653,1.111327291,
655.9934692,1.132166505,
655.008606,1.158364177,
653.9870605,1.165618896,
653.0016479,1.175315976,
652.0159302,1.182471633,
650.9934082,1.182871103,
650.0071411,1.171418548,
648.9840088,1.155967355,
647.9971924,1.141052246,
647.0100098,1.122576833,
645.9859619,1.098887324,
644.998291,1.076355934,
644.0102539,1.04578805,
642.9853516,1.022132158,
641.9967651,0.9889582992,
641.0079346,0.9565638304,
639.9821167,0.9232232571,
638.9927368,0.8881841898,
638.0029297,0.8523404598,
637.0130005,0.8227192163,
635.9860229,0.7843672037,
634.9954224,0.751958847,
634.0045776,0.716276288,
633.0134888,0.6854013801,
631.9852905,0.6537798643,
630.9936523,0.6250469685,
630.0016479,0.5967163444,
629.0093994,0.5711605549,
628.0169067,0.5459265113,
626.9873047,0.519762814,
625.9942017,0.4979330003,
625.0008545,0.478795588,
624.0072632,0.4615719318,
623.0132446,0.4446505308,
621.9822998,0.429711014,
620.987854,0.4154536128,
619.993103,0.4044846892,
618.9980469,0.3932894468,
618.0028076,0.3847485185,
617.0072021,0.3777111173,
616.0114136,0.3700159192,
615.0152588,0.3643433154,
613.9819946,0.3593835533,
612.9853516,0.3546713889,
611.9884644,0.3513623774,
610.991333,0.3488121331,
609.9937744,0.3455129266,
608.9960938,0.3427464962,
607.9981079,0.3401106,
606.9998169,0.337452054,
606.0012817,0.3346597552,
605.0025024,0.3325607479,
604.003479,0.3295760751,
603.0040894,0.3262785375,
602.0045776,0.3221691847,
601.0046997,0.3176842034,
600.0045776,0.3118456602,
599.0041504,0.3064715564,
598.003479,0.3002959192,
597.0026245,0.2942230701,
596.0014038,0.2872703671,
595,0.2791388631,
593.9983521,0.2722757161,
592.9963989,0.2649777532,
591.9941406,0.2571812868,
590.9916992,0.2481131256,
589.9889526,0.2408021539,
588.9859009,0.232921809,
587.982666,0.2241983563,
587.0163574,0.2161812931,
586.0125732,0.2083239704,
585.0085449,0.2009772211,
584.0042725,0.1929718852,
582.9997559,0.1840682328,
581.9949951,0.1761246771,
580.9898682,0.1687058359,
579.9846191,0.1620146036,
579.0162964,0.1553663164,
578.010498,0.1484870762,
577.0044556,0.1419132054,
575.9981689,0.1357881576,
574.9915771,0.1303056479,
573.9848022,0.125185281,
573.0150146,0.120186083,
572.0076904,0.1159444749,
571.0001221,0.1120026484,
569.9923096,0.1077220291,
568.984314,0.1040172055,
568.0133057,0.1007410511,
567.0046997,0.09753593057,
565.9959717,0.09451656044,
564.9869385,0.09163855016,
564.0150146,0.0896185562,
563.0053711,0.08699347079,
561.9956665,0.08466611803,
560.9855957,0.08237655461,
560.0128174,0.08071964979,
559.0022583,0.07872582972,
557.9914551,0.07653662562,
557.0178833,0.07495339215,
556.0067139,0.07317682356,
554.9951782,0.07153940946,
553.9834595,0.06963834167,
553.0090332,0.06772105396,
551.9967651,0.0659205541,
550.984314,0.06413406134,
550.0091553,0.06248411164,
548.9962769,0.06049151719,
547.9830322,0.05864363909,
547.0071411,0.05681710318,
545.9935303,0.05500268191,
545.0172119,0.05316751823,
544.0031128,0.05101494119,
542.9887085,0.04949867725,
542.0117798,0.04776316881,
540.9969482,0.04607143998,
539.9818726,0.04428166524,
539.0042114,0.04274344072,
537.9887085,0.04120953381,
537.0105591,0.0397124812,
535.9945679,0.03834451362,
535.0159302,0.03733255714,
533.9995117,0.0359323211,
532.9828491,0.03450581059,
532.0036011,0.03338521346,
530.9863892,0.03232131526,
530.0067139,0.03142375872,
528.9891968,0.03004934639,
528.0089722,0.0288107004,
526.9909668,0.0280430261,
526.010437,0.0271416381,
524.9918823,0.02626282349,
524.0109253,0.02550869435,
522.9919434,0.02498248592,
522.010498,0.02436512709,
520.9910889,0.0238265451,
520.0092163,0.02319392189,
518.9893188,0.02259131521,
518.007019,0.0219606515,
516.9867554,0.02185997181,
516.0039063,0.02120639384,
514.9832153,0.02080728486,
514.000061,0.02051694319,
513.0166626,0.02008048259,
511.9952393,0.01981566101,
511.0114441,0.01937351562,
509.989624,0.019093059,
509.0054321,0.01887742057,
507.9830627,0.0186252743,
506.9984436,0.01858666539,
506.0135498,0.01812242158,
504.9906311,0.01785194129,
504.0054016,0.01759243757,
502.9819946,0.01771381125,
501.9963379,0.01752049848,
501.010376,0.01731598377,
499.9863281,0.01728605665,
499.000061,0.01714754105,
498.0135193,0.01699975505,
496.9888306,0.01680511795,
496.0019226,0.01688267104,
495.0147705,0.01696758717,
493.989502,0.01710168272,
493.0019226,0.01760367863,
492.0141907,0.01759685948,
490.9882507,0.0174718257,
490.0000916,0.01794473641,
489.0117188,0.01820488088,
487.9851379,0.0184186995,
486.9963989,0.01836549863,
486.0074463,0.01864891872,
485.0183105,0.01909727789,
483.9909058,0.01877074875,
483.0013428,0.01859431155,
482.0115662,0.01856937446,
480.9836121,0.01855597273,
479.9934387,0.01861916855,
479.0029907,0.01853868365,
478.0124817,0.01811014116,
476.9836426,0.01791967452,
475.9927368,0.01786639914,
475.0015869,0.01773479022,
474.0102844,0.0174559541,
473.0187073,0.01749602705,
471.9888916,0.01737436466,
470.9969482,0.01737032272,
470.0048523,0.01756626554,
469.0125732,0.01730889827,
467.981842,0.01727678999,
466.9892273,0.01718451455,
465.9963379,0.01732754149,
465.0032959,0.0172462184,
464.0099182,0.01728425175,
463.0165405,0.01752090268,
461.9846802,0.01751432754,
460.9908447,0.01769960113,
459.9968262,0.01752936654,
459.002655,0.01754569821,
458.0082397,0.01762748323,
457.0136108,0.017817121,
456.0188599,0.01779554598,
454.9856567,0.01787281781,
453.990509,0.01797060855,
452.9951782,0.01805802993,
451.9996338,0.01775735989,
451.0039673,0.01800687052,
450.0080872,0.01797983609,
449.0120239,0.01792455651,
448.0157776,0.01781097241,
446.9810181,0.01781078428,
445.984375,0.01747613773,
444.9875488,0.01740443334,
443.9905701,0.01762249507,
442.9934387,0.01765756868,
441.9960632,0.0178466551,
440.9985046,0.01754359715,
440.000824,0.01780816726,
439.0029297,0.01805681735,
438.0048218,0.01800813898,
437.0066223,0.01793526672,
436.0082092,0.01786140911,
435.009613,0.01797565259,
434.0108032,0.01813006029,
433.0118713,0.01805147342,
432.0127563,0.01810185611,
431.0134583,0.01831284352,
430.0139465,0.01838448271,
429.0142822,0.01853849366,
428.0144653,0.01849351637,
427.0144348,0.01858747564,
426.0142517,0.01862889528,
425.013916,0.01872061379,
424.0133972,0.01876956038,
423.0126953,0.01840130799,
422.0118408,0.0187328551,
421.0107727,0.01855248772,
420.0095215,0.01825571433,
419.0081482,0.01838861406,
418.0065918,0.01852147467,
417.0048828,0.01862470806,
416.0029602,0.01863205619,
415.000885,0.01869856007,
413.9986877,0.0189758148,
412.9962769,0.01872693747,
411.9936829,0.01902901009,
410.9909363,0.01941888221,
409.9880371,0.01919382997,
408.9848938,0.019155683,
407.9816589,0.01927817054,
407.0168457,0.01962317154,
406.0133057,0.01945594326,
405.0095825,0.01952636242,
404.0056152,0.01911572739,
403.0015564,0.01923958212,
401.997345,0.01938815974,
400.9929199,0.01970951818,
399.9884033,0.01954106428,

s23,
s23
Collection Time: 2/16/2024 9:07:10 AM
Operator Name  :
Scan Version 5.1.0.1016
Parameter List :
Instrument  Cary 60
Instrument Version  2.00
Start (nm)  800.0
Stop (nm)  400.0
X Mode  Nanometers
Y Mode  Abs
UV-Vis Scan Rate (nm/min)  4800.00
UV-Vis Data Interval (nm)  1.00
UV-Vis Ave. Time (sec)  0.0125
Beam Mode  Dual Beam
Baseline Correction  On
Baseline Type  Zero/baseline correction
Baseline File Name
Baseline Std Ref File Name
Cycle Mode  Off
Method Log     :
Method Name    :
Date/Time stamp: 2/16/2024 8:00:54 AM
Method Modifications:
X Stop nm Changed: 2/16/2024 8:11:49 AM, Old:  200.0, New:  400.0
Baseline Correction Changed: 2/16/2024 8:24:33 AM, Old:0, New:2
Y Max Abs Changed: 2/16/2024 8:28:20 AM, Old:     1.00, New:     1.50
Peak Selection Changed: 2/16/2024 8:40:53 AM, Old:All Peaks, New:Maximum
Peak Position Changed: 2/16/2024 8:41:33 AM, Old:Top, New:Right
Common Interval nm Changed: 2/16/2024 8:44:51 AM, Old:     5.00, New:     2.00
Common Interval nm Changed: 2/16/2024 8:46:14 AM, Old:     2.00, New:     1.00
UVVIS SAT Changed: 2/16/2024 8:52:38 AM, Old:0.0125, New:0.1000
Common SAT Changed: 2/16/2024 8:52:38 AM, Old:0.0125, New:0.1000
UVVIS SAT Changed: 2/16/2024 8:52:49 AM, Old:0.1000, New:0.0125
Common SAT Changed: 2/16/2024 8:52:49 AM, Old:0.1000, New:0.0125
X Start nm Changed: 2/16/2024 9:03:01 AM, Old:  800.0, New:  900.0
X Start nm Changed: 2/16/2024 9:03:48 AM, Old:  900.0, New:  800.0
End Method Modifications
<Current Wavelength> , 453.0

